BioWare Version 5.4.9.0 Export
Device:	ISO Leg Press (NEW) 9281CA (SN<616902)	ISO Leg Press (NEW) 9281CA (SN<616902)	ISO Leg Press (NEW) 9281CA (SN<616902)
Samples (#):	1500	1500	1500
Rate (Hz):	100.000000	100.000000	100.000000
Contact period start (sample #):	0	0	0
Contact period end (sample #):	1499	1499	1499
Contact period start time (s):	0.000000	0.000000	0.000000
Contact period end time (s):	14.990000	14.990000	14.990000
First sample time (s):	0.000000	0.000000	0.000000
Normalized force (N):	800.000000	800.000000	800.000000
Normalized length (m):	1.000000	1.000000	1.000000
File Information
Date	Oct 13, 2024  11:28:42
Name	
ID	
Classification	
Description	
abs time (s)	Fx	Fy	Fz
	N	N	N
0.000000	46.801561	8.812302	135.017282
0.010000	46.720572	8.932800	135.649606
0.020000	46.720572	9.255822	136.281112
0.030000	46.599598	8.974450	136.439889
0.040000	46.317837	9.175703	136.122826
0.050000	46.398315	8.572261	134.227323
0.060000	46.398315	8.411068	134.859811
0.070000	46.559614	8.210451	135.018921
0.080000	46.318514	7.849277	133.438186
0.090000	46.358839	7.647387	132.648396
0.100000	46.117571	7.325636	132.807009
0.110000	46.036922	7.204185	133.122271
0.120000	45.835979	7.043945	132.016235
0.130000	45.795485	6.843646	131.859095
0.140000	46.117231	6.923766	133.282195
0.150000	46.077248	6.522213	132.490438
0.160000	45.714836	6.884024	131.701465
0.170000	45.392920	6.842374	130.437140
0.180000	45.513723	6.965098	130.120895
0.190000	45.714836	7.083687	129.963591
0.200000	45.916290	7.002931	130.436974
0.210000	46.157726	7.324682	130.911508
0.220000	45.957123	7.404802	129.804650
0.230000	45.755840	7.766930	129.963265
0.240000	45.715855	7.927488	129.489880
0.250000	45.474756	7.765976	128.858538
0.260000	45.474756	7.967548	129.174617
0.270000	45.635714	7.806672	128.858867
0.280000	45.716194	7.766294	128.067925
0.290000	45.353952	7.806990	129.807108
0.300000	45.313627	7.846414	131.230210
0.310000	45.112686	8.369100	130.437794
0.320000	45.152670	8.288662	130.596246
0.330000	45.192654	8.128423	129.964740
0.340000	45.233318	8.007607	131.387185
0.350000	45.152842	8.088363	131.703102
0.360000	44.831093	7.966912	132.809304
0.370000	44.871078	8.046395	131.544814
0.380000	44.589315	7.966594	130.437960
0.390000	44.629980	7.845460	132.650853
0.400000	44.589485	7.684903	132.492893
0.410000	44.710459	7.604147	131.384729
0.420000	44.750614	7.764386	131.702611
0.430000	44.347878	7.483331	131.386040
0.440000	43.905327	7.805400	132.176813
0.450000	43.945992	7.483649	132.651672
0.460000	43.784523	7.403848	131.544650
0.470000	43.945482	7.525935	132.809464
0.480000	43.985636	7.645479	133.440973
0.490000	44.065947	7.444862	133.599095
0.500000	43.864834	7.646115	132.807664
0.510000	43.784523	7.767566	133.757707
0.520000	43.502762	7.687447	133.123908
0.530000	43.864153	7.848640	133.441791
0.540000	43.502251	7.768839	133.282358
0.550000	43.984108	7.648023	132.018199
0.560000	44.105082	7.768839	133.600239
0.570000	44.185732	7.889336	132.652162
0.580000	44.265871	7.969774	132.809630
0.590000	44.385996	7.770429	131.229225
0.600000	44.345840	7.689037	130.438452
0.610000	44.305687	7.529116	131.545800
0.620000	44.264853	7.770429	131.386202
0.630000	43.943106	7.769475	130.912814
0.640000	44.143539	7.890926	131.701465
0.650000	43.902950	8.010788	131.860567
0.660000	44.184032	7.810170	131.702281
0.670000	43.781637	7.810489	132.966115
0.680000	43.942766	7.769793	134.388067
0.690000	44.143707	7.972000	135.337127
0.700000	44.264853	7.770747	136.283572
0.710000	44.143539	7.891562	137.706507
0.720000	44.103046	7.449632	138.496462
0.730000	44.144049	7.568858	137.706014
0.740000	43.781809	7.488738	138.020948
0.750000	44.224527	7.530388	138.338504
0.760000	44.465796	7.571401	138.653275
0.770000	44.587109	7.330089	138.336375
0.780000	44.425301	7.289711	139.127640
0.790000	43.902102	7.489692	137.705524
0.800000	43.661682	7.770747	139.918581
0.810000	43.621696	7.366650	140.866498
0.820000	43.581713	7.848958	142.604201
0.830000	43.339766	7.849277	143.868855
0.840000	42.936689	8.050530	145.764356
0.850000	42.212038	8.251783	150.503600
0.860000	41.367260	8.371644	155.403750
0.870000	40.924372	8.611685	159.195413
0.880000	40.602795	8.854588	162.196626
0.890000	40.320692	8.813574	168.833008
0.900000	39.757677	9.375366	175.469885
0.910000	39.113504	9.898052	183.211157
0.920000	38.832420	10.095489	190.478726
0.930000	38.188248	10.055111	201.381954
0.940000	38.189266	10.535193	208.491063
0.950000	38.068462	10.251594	215.759939
0.960000	37.746716	10.009645	226.504061
0.970000	37.826855	10.046843	235.509499
0.980000	37.666576	10.164478	247.677059
0.990000	36.862633	9.560082	257.159145
1.000000	36.177286	9.319405	270.909073
1.010000	35.050747	9.118470	282.131168
1.020000	32.998442	9.601097	293.669180
1.030000	32.312585	10.245552	307.102854
1.040000	32.392046	10.605454	318.956963
1.050000	31.586745	11.568480	330.969013
1.060000	30.740609	11.044204	342.981556
1.070000	29.894983	11.122098	352.465118
1.080000	29.252169	10.956452	363.688030
1.090000	28.647980	10.956452	373.329727
1.100000	28.767426	12.480316	382.178513
1.110000	28.082758	13.966982	392.610504
1.120000	27.356748	14.649907	403.040829
1.130000	27.114461	16.337190	409.994774
1.140000	26.389469	16.175997	418.845852
1.150000	25.384242	15.732159	426.590405
1.160000	24.980828	15.570329	432.754223
1.170000	24.255497	16.052319	441.921055
1.180000	23.329222	16.614110	449.188442
1.190000	23.691293	16.934271	456.299706
1.200000	22.845158	17.656939	462.145626
1.210000	22.644215	17.575866	470.206440
1.220000	22.724015	16.931728	475.418068
1.230000	23.206890	17.614970	479.050640
1.240000	23.328372	17.131072	482.683994
1.250000	23.850554	17.411172	486.000145
1.260000	23.890200	18.338591	488.526184
1.270000	24.373075	18.379923	489.944836
1.280000	25.177867	17.777435	492.629002
1.290000	26.144126	17.778708	492.623932
1.300000	26.948918	17.901750	492.623100
1.310000	27.953975	17.501788	493.094692
1.320000	28.879401	17.823538	493.724709
1.330000	28.195922	19.027242	494.355732
1.340000	27.271174	19.426249	493.093056
1.350000	26.144976	18.701039	491.038769
1.360000	25.984016	18.902610	490.089703
1.370000	26.386582	18.420618	488.036076
1.380000	27.231699	18.622190	488.824562
1.390000	27.674419	18.944895	486.927097
1.400000	27.674419	19.548336	487.716564
1.410000	27.674759	19.025969	485.818604
1.420000	27.876041	19.108315	485.186275
1.430000	27.836567	19.149964	482.657787
1.440000	27.877061	18.907697	481.392334
1.450000	28.118498	18.948393	481.392494
1.460000	27.796242	19.311793	479.021805
1.470000	27.957370	19.271098	477.599033
1.480000	27.997865	19.190342	477.600178
1.490000	28.119008	19.148057	475.545567
1.500000	28.280136	19.348673	472.542053
1.510000	28.240320	19.106406	472.226463
1.520000	28.038868	19.227222	469.382408
1.530000	27.596148	19.750545	468.435478
1.540000	27.314216	20.073248	466.856873
1.550000	27.394865	20.354622	464.168133
1.560000	27.878249	20.797187	462.114841
1.570000	27.999562	20.594980	460.375168
1.580000	28.603071	20.676373	458.794765
1.590000	28.724215	20.355258	455.949543
1.600000	28.603920	20.235079	456.264969
1.610000	28.724894	20.276728	454.050762
1.620000	28.765219	20.317424	453.419418
1.630000	28.886022	19.916826	451.677948
1.640000	29.368557	19.636089	452.153622
1.650000	29.529856	19.476486	451.994194
1.660000	29.369067	19.395730	451.203747
1.670000	29.208279	19.554380	452.468071
1.680000	29.208279	19.391913	450.413128
1.690000	29.127969	19.352809	450.729706
1.700000	28.926686	19.311793	451.520153
1.710000	28.967181	19.434200	449.938438
1.720000	29.328743	19.836070	450.411003
1.730000	29.328573	20.117126	451.991413
1.740000	29.368557	20.196926	453.097290
1.750000	29.006486	20.077701	453.097618
1.760000	28.442622	19.432609	452.782188
1.770000	28.201355	19.673605	454.996723
1.780000	27.879268	19.553107	455.154678
1.790000	27.959068	19.473305	455.312969
1.800000	27.636811	19.433882	457.366909
1.810000	27.596996	19.472987	456.894508
1.820000	27.555823	19.352491	458.317772
1.830000	26.791355	18.990679	459.582096
1.840000	26.108047	19.351218	459.741524
1.850000	25.625001	19.471398	462.114670
1.860000	25.182281	19.392231	463.221527
1.870000	24.538447	19.673287	464.646919
1.880000	24.457798	19.392231	466.542747
1.890000	24.055402	19.151555	468.125282
1.900000	24.055572	19.032012	469.864792
1.910000	23.089822	18.590717	473.186184
1.920000	21.963792	18.513778	475.717121
1.930000	21.078011	18.717257	477.773697
1.940000	20.394362	18.761451	480.938595
1.950000	19.871672	18.282959	483.628971
1.960000	19.066541	17.643592	485.211830
1.970000	18.343246	17.285280	486.477467
1.980000	17.257202	16.846212	488.059181
1.990000	16.331606	16.928558	490.750042
2.000000	15.567138	17.050964	493.911346
2.010000	15.044108	17.533908	500.076149
2.020000	14.561233	17.335834	504.028069
2.030000	13.998388	17.256669	508.928192
2.040000	12.871509	17.297365	513.038399
2.050000	11.785295	17.298001	517.782074
2.060000	10.577937	17.621341	522.523468
2.070000	10.537442	17.983788	525.368034
2.080000	10.899005	18.104922	529.002853
2.090000	10.577427	18.868920	533.270523
2.100000	9.893779	18.869239	538.485443
2.110000	8.968353	19.029160	544.175888
2.120000	8.364504	19.067312	547.493179
2.130000	8.484629	19.670117	552.866547
2.140000	8.323671	20.190577	557.922203
2.150000	8.806546	21.031516	563.292313
2.160000	9.852775	21.431795	568.663536
2.170000	11.662963	21.791698	572.452103
2.180000	12.668698	22.029831	575.135078
2.190000	13.312871	21.744642	582.878166
2.200000	13.996860	21.579950	591.410210
2.210000	14.276584	21.338319	599.628975
2.220000	14.114777	21.255973	608.955879
2.230000	13.912136	21.173627	619.705582
2.240000	13.307438	21.692180	633.617386
2.250000	12.220035	23.369603	655.117752
2.260000	8.317049	25.484825	679.787300
2.270000	-0.091924	27.717999	706.360344
2.280000	-11.721424	30.793065	743.213326
2.290000	-26.972658	33.749860	781.020447
2.300000	-42.185774	37.270991	820.253433
2.310000	-54.783911	41.793298	863.276138
2.320000	-66.616390	45.630773	908.352112
2.330000	-77.888401	46.940980	955.478928
2.340000	-83.485867	48.092222	1000.231125
2.350000	-89.846268	48.485188	1045.771652
2.360000	-97.254261	48.761789	1080.092560
2.370000	-101.644367	49.002149	1104.927765
2.380000	-105.469082	49.286065	1116.486221
2.390000	-110.702438	47.205817	1114.771133
2.400000	-114.244377	45.684178	1107.046219
2.410000	-123.656708	44.158091	1106.435532
2.420000	-133.308270	43.632859	1108.035431
2.430000	-143.569115	42.752817	1117.540283
2.440000	-149.844795	43.761308	1130.833496
2.450000	-148.318230	47.186110	1144.279984
2.460000	-146.710014	48.522396	1157.248627
2.470000	-148.239632	50.381684	1170.218109
2.480000	-156.530006	50.952382	1184.137772
2.490000	-168.560707	50.072020	1200.272964
2.500000	-175.200668	48.835889	1211.349564
2.510000	-178.541664	48.196839	1222.899384
2.520000	-177.896805	48.162505	1234.604156
2.530000	-178.419502	47.967927	1241.725433
2.540000	-182.806381	47.289454	1251.850983
2.550000	-187.916214	45.409188	1260.234222
2.560000	-195.882126	44.245546	1266.250275
2.570000	-195.599350	44.572067	1262.619019
2.580000	-191.414085	43.897408	1258.354156
2.590000	-189.525795	44.268443	1263.414551
2.600000	-193.229538	45.117649	1273.060318
2.610000	-203.690987	45.559898	1286.343567
2.620000	-214.312202	43.786771	1301.523987
2.630000	-217.128807	42.056884	1313.697403
2.640000	-211.536438	42.060381	1326.183517
2.650000	-206.827805	42.742671	1335.190445
2.660000	-207.997215	43.824287	1340.245117
2.670000	-215.562431	44.019181	1345.773163
2.680000	-223.849411	42.887326	1353.513931
2.690000	-223.204216	41.882017	1358.720520
2.700000	-213.908112	41.922395	1357.601349
2.710000	-208.036018	43.052655	1365.020813
2.720000	-206.269035	45.263259	1373.864365
2.730000	-212.950005	47.270703	1385.403366
2.740000	-221.961800	45.661633	1389.514542
2.750000	-226.387482	42.245418	1387.622681
2.760000	-222.039223	39.151586	1387.464722
2.770000	-217.290443	38.028001	1386.040955
2.780000	-219.343597	39.317870	1384.143494
2.790000	-224.335175	42.973806	1396.469452
2.800000	-230.171188	45.630793	1406.896851
2.810000	-231.779930	46.674892	1414.004196
2.820000	-226.186028	44.948506	1421.111481
2.830000	-221.115501	42.778276	1425.689178
2.840000	-221.355743	41.125011	1431.846115
2.850000	-225.016953	42.288018	1434.998901
2.860000	-228.599213	44.170831	1437.042542
2.870000	-227.473015	44.649005	1435.606659
2.880000	-220.713104	43.324806	1434.482727
2.890000	-213.709717	41.837821	1435.255676
2.900000	-211.575569	39.708289	1436.031219
2.910000	-211.092865	38.063930	1437.599152
2.920000	-211.938835	39.267950	1436.796417
2.930000	-209.725906	42.081360	1437.254913
2.940000	-204.857338	44.772365	1437.080414
2.950000	-201.032455	43.965763	1435.797119
2.960000	-196.766205	43.274887	1438.618225
2.970000	-192.742073	43.144211	1441.284851
2.980000	-191.496605	42.536317	1443.797913
2.990000	-188.722534	44.138711	1448.367584
3.000000	-185.905418	45.420309	1449.937012
3.010000	-184.860039	46.656121	1449.930939
3.020000	-184.295670	46.086378	1452.448303
3.030000	-183.048325	44.994269	1451.331573
3.040000	-181.360466	44.863594	1449.258972
3.050000	-178.787857	45.969049	1451.603271
3.060000	-170.901909	48.156441	1458.212128
3.070000	-161.845711	50.911029	1470.996124
3.080000	-164.947632	50.720904	1474.637054
3.090000	-172.192970	49.563941	1479.391663
3.100000	-175.974304	48.640656	1487.457062
3.110000	-179.675499	49.764559	1494.731323
3.120000	-182.653572	51.132318	1498.531677
3.130000	-179.595871	52.140172	1495.054962
3.140000	-175.411972	52.507071	1497.110870
3.150000	-178.951866	51.951959	1501.543732
3.160000	-187.319328	51.999332	1507.088959
3.170000	-192.187042	51.483962	1512.315796
3.180000	-193.151947	51.771375	1521.967163
3.190000	-193.394569	51.900460	1528.773468
3.200000	-193.476402	52.388812	1534.790192
3.210000	-195.728294	52.429505	1537.646362
3.220000	-200.876083	51.624810	1537.501160
3.230000	-207.112282	50.901827	1539.410645
3.240000	-210.614746	50.143234	1538.946716
3.250000	-211.783134	50.547648	1537.218353
3.260000	-214.318657	51.392085	1542.125061
3.270000	-216.171890	52.033042	1544.026489
3.280000	-217.901932	51.023916	1546.874664
3.290000	-220.034210	50.334946	1551.779205
3.300000	-221.563652	48.963370	1551.307983
3.310000	-219.671455	51.046165	1554.470428
3.320000	-219.471535	53.177605	1557.633820
3.330000	-222.932816	54.467789	1560.486877
3.340000	-225.187935	55.352600	1568.549500
3.350000	-227.683128	54.388304	1577.403870
3.360000	-230.256424	52.697839	1582.940277
3.370000	-228.484520	51.893780	1587.052582
3.380000	-226.111496	52.136047	1591.952393
3.390000	-225.307037	52.739808	1594.796143
3.400000	-226.032707	53.102254	1598.270752
3.410000	-225.228088	53.821104	1604.588104
3.420000	-225.227913	53.778184	1612.328400
3.430000	-224.424149	52.327763	1616.280487
3.440000	-223.619179	50.842369	1619.127808
3.450000	-224.947174	51.687442	1618.181885
3.460000	-228.409988	52.611995	1621.033813
3.470000	-231.308250	53.255178	1627.045227
3.480000	-232.677765	53.257725	1628.945831
3.490000	-234.970657	51.812389	1627.056702
3.500000	-236.258667	51.451850	1625.010956
3.510000	-236.176140	51.533877	1623.437256
3.520000	-238.832298	50.891649	1624.079437
3.530000	-243.581413	51.139005	1629.620911
3.540000	-246.237228	52.069602	1633.266235
3.550000	-249.215973	52.636483	1630.749542
3.560000	-251.670166	51.355205	1629.811951
3.570000	-251.025658	50.075198	1628.558136
3.580000	-252.353981	50.074563	1625.564575
3.590000	-255.612793	49.675873	1628.419006
3.600000	-258.712181	50.925044	1629.850647
3.610000	-261.408157	53.056799	1626.540009
3.620000	-263.944183	53.745449	1628.602020
3.630000	-265.594254	54.311375	1631.928131
3.640000	-265.592224	54.832789	1636.200684
3.650000	-267.603523	54.797180	1637.472778
3.660000	-270.460793	53.717475	1642.063721
3.670000	-272.995964	53.115941	1649.815491
3.680000	-274.283638	53.599520	1655.512787
3.690000	-274.282104	54.563499	1654.413788
3.700000	-275.971153	54.684633	1654.107361
3.710000	-280.114227	54.363836	1659.966248
3.720000	-285.143738	53.882484	1665.507202
3.730000	-287.799042	53.444688	1665.673706
3.740000	-290.253418	53.566776	1661.098511
3.750000	-290.857086	53.210371	1658.890503
3.760000	-289.085861	52.492792	1659.523193
3.770000	-287.717728	51.414039	1662.050659
3.780000	-287.799042	49.772538	1660.785675
3.790000	-289.006577	48.284601	1659.994904
3.800000	-290.172760	47.841081	1657.623383
3.810000	-288.362228	48.279197	1659.673279
3.820000	-287.636734	48.159335	1657.458405
3.830000	-289.045364	48.523686	1653.984619
3.840000	-289.608566	49.289914	1654.776581
3.850000	-290.775421	49.131581	1654.935181
3.860000	-292.507172	49.094385	1657.147095
3.870000	-291.502960	48.937326	1656.829865
3.880000	-290.016724	48.057281	1650.664398
3.890000	-290.138718	46.932110	1641.336334
3.900000	-289.938614	46.610358	1634.219025
3.910000	-287.807190	46.610993	1625.043518
3.920000	-285.072098	45.848903	1613.180237
3.930000	-280.808052	45.286791	1610.480194
3.940000	-276.061134	44.763471	1612.366211
3.950000	-273.003952	44.039851	1615.358734
3.960000	-270.630066	41.786958	1616.617310
3.970000	-270.790337	39.775382	1615.509491
3.980000	-272.761665	39.493692	1609.817902
3.990000	-271.594620	39.974409	1604.120758
4.000000	-268.616562	40.012560	1593.204407
4.010000	-265.962273	40.891015	1579.119232
4.020000	-260.287727	41.842590	1555.687347
4.030000	-243.744240	42.312498	1533.805359
4.040000	-207.806801	41.242012	1558.387787
4.050000	-198.516289	39.753129	1558.208191
4.060000	-202.301361	40.047860	1552.518219
4.070000	-205.314323	40.441144	1546.513336
4.080000	-210.220329	40.113986	1543.989319
4.090000	-216.092590	39.624365	1544.937073
4.100000	-211.823296	37.892569	1541.606628
4.110000	-204.255524	34.759634	1538.900879
4.120000	-199.385773	34.677288	1533.500977
4.130000	-194.840485	39.370647	1522.082092
4.140000	-180.633438	44.061146	1508.103333
4.150000	-149.010040	47.464641	1527.450302
4.160000	-121.445652	48.537035	1548.895615
4.170000	-124.784435	47.478624	1535.787827
4.180000	-135.768402	45.184718	1529.167206
4.190000	-145.427094	44.222649	1527.126846
4.200000	-157.217216	47.070392	1535.834869
4.210000	-166.432678	48.387599	1543.909210
4.220000	-159.351532	48.340542	1544.703430
4.230000	-150.942551	48.613329	1551.975739
4.240000	-156.012581	48.244520	1570.166046
4.250000	-166.315781	46.749588	1581.407959
4.260000	-175.169853	47.262412	1597.389435
4.270000	-184.827187	48.906139	1607.523682
4.280000	-185.473740	50.991477	1613.390411
4.290000	-184.427505	52.155755	1613.565735
4.300000	-187.728172	52.635836	1614.687195
4.310000	-196.218140	51.947505	1621.656036
4.320000	-203.903641	51.302415	1630.993286
4.330000	-210.703712	52.541725	1638.275238
4.340000	-208.974510	53.378847	1646.181366
4.350000	-204.106796	54.704000	1652.665375
4.360000	-203.787254	55.825677	1658.677124
4.370000	-205.880058	55.300766	1654.410400
4.380000	-210.427727	53.605532	1652.833466
4.390000	-214.934563	52.633601	1648.409637
4.400000	-214.452530	52.705770	1640.660339
4.410000	-210.513290	54.223591	1632.117157
4.420000	-207.176384	56.738766	1628.309937
4.430000	-204.484314	60.449706	1621.804779
4.440000	-196.439285	63.507598	1616.078796
4.450000	-187.185875	64.477613	1609.561859
4.460000	-175.635498	64.769464	1604.789673
4.470000	-168.030632	64.600327	1599.559235
4.480000	-169.643608	65.607861	1591.337357
4.490000	-172.986298	67.173059	1584.855164
4.500000	-174.678741	68.174231	1583.111237
4.510000	-173.392265	68.888636	1588.320786
4.520000	-169.609741	68.356089	1591.317200
4.530000	-163.533134	66.779442	1588.623047
4.540000	-159.710625	66.044058	1586.875198
4.550000	-162.688019	67.002949	1588.299118
4.560000	-168.364609	68.291859	1584.827301
4.570000	-170.778641	68.856510	1584.514801
4.580000	-171.261856	68.465136	1582.628189
4.590000	-170.455879	67.145386	1577.579056
4.600000	-170.775246	65.822145	1577.586441
4.610000	-173.510689	65.746475	1581.861816
4.620000	-177.977547	66.836361	1579.975159
4.630000	-180.390221	66.922518	1577.611008
4.640000	-180.109810	66.809019	1573.665344
4.650000	-178.417374	66.008457	1569.559875
4.660000	-177.208153	64.803164	1566.083984
