BioWare Version 5.4.9.0 Export
Device:	ISO Leg Press (NEW) 9281CA (SN<616902)	ISO Leg Press (NEW) 9281CA (SN<616902)	ISO Leg Press (NEW) 9281CA (SN<616902)
Samples (#):	1500	1500	1500
Rate (Hz):	100.000000	100.000000	100.000000
Contact period start (sample #):	0	0	0
Contact period end (sample #):	1499	1499	1499
Contact period start time (s):	0.000000	0.000000	0.000000
Contact period end time (s):	14.990000	14.990000	14.990000
First sample time (s):	0.000000	0.000000	0.000000
Normalized force (N):	800.000000	800.000000	800.000000
Normalized length (m):	1.000000	1.000000	1.000000
File Information
Date	Oct 13, 2024  11:37:32
Name	
ID	
Classification	
Description	
abs time (s)	Fx	Fy	Fz
	N	N	N
0.000000	49.698519	2.362936	133.629221
0.010000	49.457420	2.001762	132.997060
0.020000	49.496895	1.880628	132.524167
0.030000	49.296463	1.678739	133.155671
0.040000	49.497576	1.758223	134.102604
0.050000	49.175320	1.679057	133.470932
0.060000	49.216494	1.556969	133.943827
0.070000	48.974546	1.597983	135.841625
0.080000	49.497746	1.355716	135.051831
0.090000	48.974546	1.557605	136.000565
0.100000	49.015209	1.758858	134.733131
0.110000	49.296972	1.919416	136.315336
0.120000	49.377451	1.638997	135.524559
0.130000	49.457592	1.758858	135.682684
0.140000	49.618719	1.839932	136.314189
0.150000	49.537901	2.080927	134.890759
0.160000	49.135674	1.879992	135.523906
0.170000	49.256819	2.443374	134.733785
0.180000	48.733446	2.402360	134.575826
0.190000	48.774111	2.402678	134.891254
0.200000	49.055365	2.283453	135.049376
0.210000	49.055365	2.363890	136.312227
0.220000	48.894917	2.605203	136.154267
0.230000	48.814266	2.484069	138.840047
0.240000	48.009985	2.765124	139.470082
0.250000	47.486444	2.523812	142.000198
0.260000	47.326164	2.603295	144.052186
0.270000	47.285671	2.684687	147.684245
0.280000	47.164698	2.763852	150.212727
0.290000	47.125051	2.763852	153.530020
0.300000	47.365810	2.964470	154.950833
0.310000	47.446119	2.481844	155.898090
0.320000	47.486784	2.561645	156.688530
0.330000	47.325996	2.282180	156.531390
0.340000	47.204342	2.243075	156.530245
0.350000	46.882425	2.283135	156.531887
0.360000	46.842102	2.282816	155.900215
0.370000	46.318733	2.282180	155.901204
0.380000	45.715223	2.361982	156.217449
0.390000	45.393475	2.161047	155.584135
0.400000	45.393305	1.718481	156.374911
0.410000	45.594419	1.637725	158.745766
0.420000	46.036631	1.959476	158.900930
0.430000	46.640139	2.202061	159.690890
0.440000	46.841593	2.282498	160.323051
0.450000	46.438856	2.363890	160.322397
0.460000	46.117449	2.403314	161.744682
0.470000	45.393137	2.040867	163.010152
0.480000	44.749472	2.041185	162.063215
0.490000	44.991249	2.081563	161.903621
0.500000	45.392965	2.282816	160.953578
0.510000	45.674898	2.242121	164.114876
0.520000	45.393305	2.523175	166.957641
0.530000	45.151699	2.241485	166.958295
0.540000	44.749641	2.242439	169.327181
0.550000	44.346737	2.121305	171.221862
0.560000	43.541265	1.961066	174.223565
0.570000	42.415405	2.162955	178.647220
0.580000	41.409500	2.161683	187.810446
0.590000	40.564894	2.483116	193.021768
0.600000	39.318060	2.522221	202.816176
0.610000	38.957176	2.762898	214.033684
0.620000	38.272509	2.684687	220.508344
0.630000	38.152216	2.525401	232.830251
0.640000	37.065321	2.686913	242.623350
0.650000	36.381842	2.085061	253.523462
0.660000	35.818657	2.849060	266.161122
0.670000	35.416941	2.768623	276.271447
0.680000	35.658546	2.930770	286.065527
0.690000	35.337309	3.292581	296.175688
0.700000	34.855284	4.015566	308.023563
0.710000	34.172654	4.777656	317.660172
0.720000	33.932574	5.661199	327.926494
0.730000	33.007827	5.940981	338.984899
0.740000	31.560219	6.021101	353.044672
0.750000	30.716292	6.221082	366.313852
0.760000	30.314065	6.101539	380.530587
0.770000	29.952504	6.101221	395.221885
0.780000	29.670403	6.221400	412.756577
0.790000	29.710386	5.218314	429.659944
0.800000	29.147711	4.938532	445.614899
0.810000	29.428794	4.538888	460.149694
0.820000	30.958069	4.701035	474.841468
0.830000	32.043945	5.106403	484.950157
0.840000	32.245057	5.430698	497.430850
0.850000	32.445831	6.236983	507.856109
0.860000	32.406525	6.519310	518.282843
0.870000	32.246245	7.162812	527.602880
0.880000	32.044962	7.405397	536.606854
0.890000	32.327234	7.727466	543.557034
0.900000	32.327744	7.607604	553.036324
0.910000	32.449397	8.091184	559.984556
0.920000	33.254359	8.574446	564.723622
0.930000	34.140987	8.615778	565.986639
0.940000	34.865471	9.018284	570.565292
0.950000	34.584557	9.299658	576.883979
0.960000	32.412297	9.621408	581.625496
0.970000	32.613241	9.421109	582.097741
0.980000	33.860244	9.423017	582.095776
0.990000	35.229070	9.383911	583.990470
1.000000	34.545251	9.383911	582.727126
1.010000	34.102362	9.180750	582.884431
1.020000	32.452622	8.659336	584.621785
1.030000	31.647661	8.017107	584.938521
1.040000	32.251849	8.015199	585.885458
1.050000	32.373501	7.653388	588.098194
1.060000	32.856717	8.134106	591.731577
1.070000	33.098664	7.771977	593.310513
1.080000	31.931970	7.730964	594.414917
1.090000	30.845077	7.810765	595.679733
1.100000	30.160748	7.731918	595.363980
1.110000	30.481985	7.571360	595.520795
1.120000	30.804241	7.692176	598.521329
1.130000	30.924876	7.372333	599.626388
1.140000	30.924367	7.654342	601.996887
1.150000	31.004167	7.453407	602.628722
1.160000	32.412128	7.495057	602.945623
1.170000	32.814354	6.813404	603.260066
1.180000	32.211015	6.732330	604.366434
1.190000	30.923687	6.973961	604.367089
1.200000	30.521461	7.133247	604.998760
1.210000	30.521292	7.134836	605.156557
1.220000	31.326424	7.416846	604.049697
1.230000	32.091060	7.777702	602.153730
1.240000	32.413486	7.937623	601.520721
1.250000	32.172049	7.737324	598.203939
1.260000	32.614261	7.897564	595.359204
1.270000	32.252527	7.776748	595.991367
1.280000	32.131214	8.219314	593.778307
1.290000	32.936346	8.339176	590.461363
1.300000	33.216581	8.059393	590.778067
1.310000	33.095776	7.616509	587.934019
1.320000	33.136611	8.137923	586.197126
1.330000	32.251169	8.055895	583.037324
1.340000	32.613241	8.377645	581.457570
1.350000	32.934649	8.419295	579.087368
1.360000	33.135253	8.460309	576.559042
1.370000	33.135762	8.620866	576.402884
1.380000	33.337384	8.539475	575.612107
1.390000	33.095776	8.097227	572.610721
1.400000	32.812657	7.734144	570.873696
1.410000	32.692362	7.975139	568.662270
1.420000	33.255716	8.136014	564.079006
1.430000	33.698438	8.215180	561.234928
1.440000	33.778577	7.894065	558.865901
1.450000	33.899889	7.693130	559.656025
1.460000	33.336535	7.533845	559.025332
1.470000	33.376181	6.930721	556.813579
1.480000	33.456829	6.730422	554.127296
1.490000	33.577293	6.809269	552.390893
1.500000	33.899040	6.808316	550.968800
1.510000	33.576615	6.406763	547.650847
1.520000	33.455301	6.526942	545.437950
1.530000	33.455811	6.285630	545.439093
1.540000	33.455981	6.123800	543.226524
1.550000	33.616600	6.243980	541.963342
1.560000	33.897853	5.962607	540.066526
1.570000	34.099136	6.406445	538.329825
1.580000	33.898192	6.323781	536.591950
1.590000	33.214882	6.404219	535.170156
1.600000	32.933290	7.006389	536.592601
1.610000	32.933799	7.690904	534.853745
1.620000	33.295532	7.690586	535.329913
1.630000	33.737234	7.771024	538.330479
1.640000	33.778406	8.132516	538.013907
1.650000	33.255378	7.971959	537.856112
1.660000	33.013940	7.971641	540.226805
1.670000	32.812996	8.374147	541.962523
1.680000	32.853321	8.816077	545.596887
1.690000	32.933631	8.534386	544.803821
1.700000	33.094418	8.293391	546.069620
1.710000	34.099984	8.012336	545.753375
1.720000	34.663169	7.612056	544.489378
1.730000	34.542195	7.088416	544.015664
1.740000	33.697080	7.128476	545.596562
1.750000	33.133895	7.049311	549.071823
1.760000	31.766088	6.485929	548.914845
1.770000	31.444679	6.283085	549.230272
1.780000	32.369936	6.001713	552.232637
1.790000	33.336026	6.082150	555.230392
1.800000	33.215562	6.285312	565.184068
1.810000	32.572747	6.446187	577.663123
1.820000	31.688154	7.088734	596.620264
1.830000	32.251849	8.578898	624.739486
1.840000	34.786520	8.984585	661.230501
1.850000	37.159721	9.025917	706.571637
1.860000	36.877620	8.540429	757.289589
1.870000	35.625693	7.333546	808.641956
1.880000	31.720499	9.010970	868.223587
1.890000	17.878925	10.388259	918.026047
1.900000	4.473450	12.539087	973.043770
1.910000	-3.132768	14.688643	1033.111229
1.920000	-6.318403	16.115850	1085.434303
1.930000	-10.104322	17.658782	1130.800140
1.940000	-12.361135	16.721506	1151.512543
1.950000	-11.681391	16.353018	1158.469765
1.960000	-12.772531	16.797174	1168.112930
1.970000	-20.624091	17.125602	1177.598145
1.980000	-32.699368	18.772189	1184.080185
1.990000	-40.707305	20.545317	1188.976883
2.000000	-38.900512	20.471239	1202.724342
2.010000	-29.362284	18.669820	1229.111740
2.020000	-18.536217	16.829612	1253.275452
2.030000	-18.695817	16.474162	1269.855888
2.040000	-29.638782	15.637676	1285.495377
2.050000	-38.612298	16.092645	1297.336716
2.060000	-37.160617	17.830164	1301.272087
2.070000	-28.825670	16.913877	1302.205734
2.080000	-19.327935	13.423901	1302.820839
2.090000	-16.791397	11.370992	1308.024498
2.100000	-24.075359	11.329660	1318.133804
2.110000	-32.325922	11.609443	1327.452995
2.120000	-33.369265	13.056049	1337.875031
2.130000	-25.802860	13.022349	1344.498947
2.140000	-17.954525	11.459697	1348.910294
2.150000	-12.358928	7.852405	1345.891907
2.160000	-10.347627	7.622859	1346.981445
2.170000	-16.944884	7.988485	1350.289696
2.180000	-19.679140	8.473337	1354.224712
2.190000	-15.450501	8.519758	1354.841675
2.200000	-7.318706	8.682859	1355.772694
2.210000	2.583293	6.882393	1358.914974
2.220000	8.378984	7.046130	1364.432419
2.230000	6.405121	10.178430	1371.693729
2.240000	-0.435611	12.145813	1379.745872
2.250000	-1.319185	13.189278	1381.636414
2.260000	5.563740	12.905043	1375.147673
2.270000	15.102309	11.581160	1378.612968
2.280000	21.257015	11.062608	1383.818192
2.290000	17.999051	11.267041	1392.819565
2.300000	11.880424	14.841907	1398.979469
2.310000	11.037005	14.480414	1402.136959
2.320000	18.039715	13.034444	1405.767565
2.330000	26.732146	11.508037	1405.285677
2.340000	30.599563	8.934348	1413.654995
2.350000	28.948976	8.813215	1416.496458
2.360000	22.992327	10.225168	1419.656616
2.370000	19.571366	9.746040	1421.711063
2.380000	24.882484	7.298256	1423.131002
2.390000	31.724065	5.372522	1423.125444
2.400000	34.943402	4.166275	1424.071732
2.410000	32.650339	2.964798	1427.231562
2.420000	29.591280	4.568781	1430.074497
2.430000	28.544542	7.462312	1435.129837
2.440000	30.436738	8.547426	1437.341591
2.450000	34.097437	9.716157	1439.709766
2.460000	35.587067	9.479296	1441.762739
2.470000	33.897344	8.720704	1446.505270
2.480000	30.999923	9.001122	1448.086164
2.490000	31.241190	8.883168	1444.767225
2.500000	31.721518	9.849693	1440.188212
2.510000	33.049170	10.535163	1436.710724
2.520000	32.928366	11.701985	1439.554148
2.530000	29.830341	11.861271	1439.241337
2.540000	26.772131	11.538566	1437.186559
2.550000	28.261250	11.295663	1435.923211
2.560000	32.646266	11.742999	1436.079539
2.570000	35.946253	12.946384	1439.553328
2.580000	37.515512	14.151678	1446.979462
2.590000	35.020147	14.831105	1448.561831
2.600000	32.123574	13.869351	1445.404617
2.610000	31.479232	11.980496	1445.881987
2.620000	30.714254	11.694671	1444.617826
2.630000	31.157314	11.529026	1444.460192
2.640000	32.323668	11.929942	1443.983538
2.650000	33.852433	10.489060	1445.088697
2.660000	35.059453	9.365476	1444.771965
2.670000	36.146855	8.721657	1441.297091
2.680000	37.313890	8.522630	1437.184540
2.690000	35.583671	9.607107	1436.397097
2.700000	33.651660	9.004938	1428.498229
2.710000	35.016920	9.287583	1418.071137
2.720000	36.586181	9.487564	1410.169431
2.730000	37.754742	9.279950	1402.740457
2.740000	36.306285	8.152869	1396.898101
2.750000	33.731291	7.546565	1390.106255
2.760000	31.557504	6.618193	1383.156553
2.770000	32.401941	5.689821	1376.678108
2.780000	33.731291	6.291354	1377.628811
2.790000	35.260227	6.251294	1378.890192
2.800000	33.008336	5.648170	1380.787658
2.810000	30.071440	6.610561	1381.419661
2.820000	29.308500	7.493149	1380.472559
2.830000	32.809771	7.374878	1379.836635
2.840000	36.150591	7.416846	1381.570915
2.850000	36.513512	6.975233	1387.257111
2.860000	36.434900	6.571773	1390.415473
2.870000	34.180633	8.341402	1392.310917
2.880000	33.216581	7.939849	1393.894168
2.890000	36.114171	8.421839	1393.891650
2.900000	37.885734	9.182976	1394.204955
2.910000	38.329471	10.304970	1394.678504
2.920000	37.846598	10.825429	1394.359645
2.930000	37.122962	10.103398	1394.360459
2.940000	37.042314	10.422605	1391.676139
2.950000	38.209687	8.854229	1389.938100
2.960000	40.663199	7.490287	1391.358749
2.970000	38.128697	7.730328	1393.256871
2.980000	36.115530	7.932535	1395.314261
2.990000	35.229240	7.531301	1397.842098
3.000000	36.958270	8.212636	1401.000949
3.010000	38.969060	7.570724	1401.634256
3.020000	41.061861	6.807361	1398.790506
3.030000	43.352207	6.606744	1397.524874
3.040000	40.651485	4.400592	1394.054256
3.050000	38.798086	1.067675	1383.158360
3.060000	38.708267	-1.691365	1371.158117
3.070000	38.665907	-2.169220	1361.210632
3.080000	34.601961	-3.860638	1353.321142
3.090000	27.196686	-4.464397	1340.693581
3.100000	19.671796	-3.620915	1325.222496
3.110000	15.043138	-2.538027	1314.169842
3.120000	13.835610	-2.898248	1311.961849
3.130000	12.227384	-2.817492	1311.807880
3.140000	10.658294	-3.898789	1317.974003
3.150000	7.921832	-4.335949	1320.031559
3.160000	3.699305	-2.366022	1323.985867
3.170000	1.004355	-0.714345	1329.359081
3.180000	1.891494	0.735123	1332.518585
3.190000	1.572294	1.501665	1333.308868
3.200000	-1.808003	1.142081	1332.520542
3.210000	-5.145428	0.135815	1334.890907
3.220000	-7.757521	-0.033647	1335.204865
3.230000	-7.633322	-0.844066	1334.885677
3.240000	-5.056459	-0.088336	1333.773094
3.250000	-2.602438	1.836763	1329.500191
3.260000	-2.762038	1.913066	1327.918312
3.270000	-2.841328	2.831579	1326.173836
3.280000	-5.536108	3.671246	1323.011221
3.290000	-7.590451	4.033374	1319.849262
3.300000	-6.343278	2.990865	1315.105589
3.310000	-6.343278	2.908837	1314.310396
3.320000	-7.832737	3.269376	1315.254227
3.330000	-9.925196	3.269058	1317.465647
3.340000	-10.206449	3.508463	1317.144007
3.350000	-8.998582	4.151646	1315.877068
3.360000	-7.709386	4.872405	1315.083511
3.370000	-6.542014	6.194698	1317.609549
3.380000	-6.701783	7.241023	1320.923086
3.390000	-9.275590	9.447812	1323.291101
3.400000	-9.919423	11.295017	1326.290197
3.410000	-7.828322	11.979850	1329.605371
3.420000	-5.414456	12.100348	1328.338595
3.430000	-3.723713	11.618676	1329.757282
3.440000	-5.333467	10.935432	1331.020461
3.450000	-9.036869	9.889424	1328.179163
3.460000	-12.055263	8.883794	1327.391660
3.470000	-13.262451	7.718879	1329.761535
3.480000	-12.820070	6.352393	1329.919660
3.490000	-12.498833	4.505188	1328.024639
3.500000	-12.500870	3.340591	1328.816727
3.510000	-14.473035	2.053270	1329.768732
3.520000	-16.324227	1.528358	1329.137714
3.530000	-15.438447	0.721437	1327.397392
3.540000	-13.789557	0.402548	1330.086620
3.550000	-15.278167	-0.600538	1330.563110
3.560000	-17.976512	-0.759505	1331.985561
3.570000	-19.949017	0.085886	1336.095762
3.580000	-21.357488	0.688692	1336.256500
3.590000	-20.875462	1.412313	1337.363846
3.600000	-19.949527	1.493068	1337.835106
3.610000	-19.707409	1.817999	1339.730776
3.620000	-21.075216	1.979829	1339.892986
3.630000	-21.677537	1.978875	1336.255514
3.640000	-21.073688	1.977921	1335.623350
3.650000	-19.826345	1.698138	1339.257061
3.660000	-19.744847	1.095968	1339.099758
3.670000	-18.940056	0.775172	1339.254120
3.680000	-20.146904	0.494753	1342.415693
3.690000	-22.682593	0.935411	1346.843449
3.700000	-23.044835	-0.029205	1350.319853
3.710000	-20.629610	-0.273380	1354.900175
3.720000	-19.261123	0.288093	1358.216660
3.730000	-20.548960	-0.194851	1359.797720
3.740000	-21.474726	-0.395150	1360.584736
3.750000	-21.958620	0.491573	1363.271509
3.760000	-21.234986	1.055272	1366.590118
3.770000	-18.941244	1.258752	1372.275822
3.780000	-16.566854	1.540442	1376.857450
3.790000	-16.768645	1.544259	1383.335932
3.800000	-17.734056	1.264794	1388.708172
3.810000	-18.700315	1.504199	1392.027761
3.820000	-18.941753	1.022527	1396.609392
3.830000	-17.695599	0.541491	1400.876080
3.840000	-15.602971	0.459782	1406.089054
3.850000	-14.636880	-0.021255	1414.148720
3.860000	-12.945798	0.620657	1422.679815
3.870000	-12.181670	1.184675	1429.949135
3.880000	-12.584406	1.549984	1433.742601
3.890000	-11.618655	2.276149	1437.376249
3.900000	-9.968917	2.439250	1444.482605
3.910000	-8.923536	2.522232	1451.907492
3.920000	-7.194167	3.045236	1457.595982
3.930000	-5.463439	3.207384	1461.859072
3.940000	-3.934504	2.887859	1471.814680
3.950000	-4.337749	3.532314	1476.397392
3.960000	-3.815398	3.455692	1481.452242
3.970000	-2.770697	4.058498	1486.190847
3.980000	-3.695444	4.821225	1490.298435
3.990000	-2.809833	5.381745	1496.301525
4.000000	-0.877653	5.459002	1503.409519
4.010000	0.653490	4.530630	1509.410976
4.020000	1.578237	3.405456	1516.520647
4.030000	2.544666	1.918472	1522.681864
4.040000	4.315039	1.396741	1530.738913
4.050000	5.280450	1.839306	1533.894987
4.060000	6.850389	3.003586	1535.632370
4.070000	8.620592	3.487484	1538.159874
4.080000	10.390625	3.689691	1537.528700
4.090000	11.477009	4.249257	1538.476446
4.100000	12.685725	4.606615	1538.003231
4.110000	10.995831	4.528085	1535.954668
4.120000	8.782229	5.292084	1534.693611
4.130000	7.897807	5.895526	1536.433277
4.140000	8.421855	6.737418	1540.226257
4.150000	10.193756	8.221540	1547.018330
4.160000	12.286385	8.384960	1550.336391
4.170000	14.258720	8.066071	1552.072140
4.180000	13.735860	7.948754	1554.757603
4.190000	11.522596	8.030145	1553.653202
4.200000	9.913352	8.029828	1549.385036
4.210000	8.424742	8.674601	1545.753941
4.220000	8.626534	8.677463	1538.797535
4.230000	9.994681	8.037460	1536.582512
4.240000	12.248438	7.757359	1530.574406
4.250000	13.979675	6.592126	1523.618883
4.260000	14.059134	6.833439	1514.611298
4.270000	13.575411	6.310435	1507.500202
4.280000	12.771468	6.432205	1499.755306
4.290000	13.173185	7.597438	1499.595388
4.300000	13.937652	8.923865	1501.963791
4.310000	14.019660	9.244343	1502.437504
4.320000	16.232923	8.561418	1502.435049
4.330000	17.158348	8.924500	1505.753174
4.340000	14.583693	9.165177	1505.911293
4.350000	13.737897	9.447822	1506.224592
4.360000	13.416659	8.205332	1504.329414
4.370000	12.894140	6.841390	1502.117174
4.380000	14.102685	5.637051	1501.008514
4.390000	14.948312	4.191717	1496.425253
4.400000	15.954556	4.149431	1492.629990
4.410000	16.638544	4.594223	1491.524275
4.420000	16.396258	4.835536	1489.312197
4.430000	16.074002	6.160055	1481.726896
4.440000	17.924684	7.645130	1480.618893
4.450000	18.971083	7.241670	1480.775545
4.460000	18.126307	7.721751	1478.089260
4.470000	18.489566	9.005574	1479.512527
4.480000	19.012596	9.446868	1481.090642
4.490000	17.362517	9.969555	1479.512525
4.500000	16.597201	10.455679	1477.774977
4.510000	17.281529	10.417209	1480.618399
4.520000	17.804898	9.691680	1482.673337
4.530000	17.966707	9.248795	1479.829752
4.540000	18.611388	7.719844	1476.511960
4.550000	19.052920	5.831944	1473.667227
4.560000	18.529042	4.068676	1470.979799
4.570000	17.724419	4.831720	1470.982251
4.580000	16.838979	5.554387	1472.247720
4.590000	16.678020	5.350908	1471.300951
4.600000	17.725438	5.790929	1474.460127
4.610000	18.731174	5.189396	1476.830823
4.620000	18.006691	5.389695	1480.780612
4.630000	17.403012	5.787113	1480.938408
4.640000	17.724080	5.425621	1480.305754
4.650000	16.958594	6.550158	1479.991309
4.660000	15.872888	7.356125	1478.254087
4.670000	16.356103	7.997082	1476.043478
4.680000	17.041280	9.201739	1474.306093
4.690000	18.330476	10.084328	1474.621359
4.700000	18.331324	10.243295	1469.408118
4.710000	18.576327	12.007200	1461.349651
4.720000	20.670314	13.693210	1460.085101
4.730000	21.036290	15.779184	1454.078568
4.740000	21.040026	18.265119	1449.023227
4.750000	22.169451	18.505478	1443.965163
4.760000	23.459835	17.456609	1443.174719
4.770000	23.785149	16.086305	1445.388270
4.780000	24.632303	13.509438	1448.074327
4.790000	24.675344	10.651833	1447.758904
4.800000	23.267211	9.645249	1448.550985
4.810000	22.945805	8.963278	1451.553678
4.820000	22.181337	9.162305	1447.128926
